% HP8591A spectrum; freq/time units: HZ; amplitude units: DBM
50025500.0000	-67.1900
50075500.0000	-68.5900
50125500.0000	-68.9900
50175500.0000	-68.5300
50225500.0000	-67.8800
50275500.0000	-69.1400
50325500.0000	-68.8100
50375500.0000	-68.2600
50425500.0000	-67.4600
50475500.0000	-67.6200
50525500.0000	-67.2500
50575500.0000	-68.8400
50625500.0000	-67.8200
50675500.0000	-67.7100
50725500.0000	-67.5100
50775500.0000	-69.5100
50825500.0000	-67.1100
50875500.0000	-67.9200
50925500.0000	-68.8100
50975500.0000	-69.0100
51025500.0000	-68.8500
51075500.0000	-67.7900
51125500.0000	-68.4600
51175500.0000	-68.0600
51225500.0000	-68.9800
51275500.0000	-67.9800
51325500.0000	-68.0400
51375500.0000	-68.5400
51425500.0000	-68.2700
51475500.0000	-69.2300
51525500.0000	-68.7000
51575500.0000	-68.5500
51625500.0000	-67.7100
51675500.0000	-68.5100
51725500.0000	-68.8800
51775500.0000	-68.0900
51825500.0000	-68.7300
51875500.0000	-66.9500
51925500.0000	-67.9800
51975500.0000	-67.2500
52025500.0000	-68.5100
52075500.0000	-67.8300
52125500.0000	-69.1300
52175500.0000	-67.2800
52225500.0000	-68.2600
52275500.0000	-68.1800
52325500.0000	-68.7500
52375500.0000	-68.4000
52425500.0000	-67.1100
52475500.0000	-67.7500
52525500.0000	-67.0900
52575500.0000	-66.9700
52625500.0000	-66.6800
52675500.0000	-67.1200
52725500.0000	-67.1600
52775500.0000	-66.4700
52825500.0000	-66.2300
52875500.0000	-65.5400
52925500.0000	-66.5600
52975500.0000	-64.9500
53025500.0000	-64.6800
53075500.0000	-66.0800
53125500.0000	-64.7100
53175500.0000	-66.5800
53225500.0000	-66.1300
53275500.0000	-65.8800
53325500.0000	-64.4800
53375500.0000	-65.5100
53425500.0000	-65.9600
53475500.0000	-67.0700
53525500.0000	-65.8100
53575500.0000	-65.3000
53625500.0000	-66.1200
53675500.0000	-65.9000
53725500.0000	-65.8500
53775500.0000	-64.8500
53825500.0000	-65.3400
53875500.0000	-65.1400
53925500.0000	-64.9900
53975500.0000	-65.8200
54025500.0000	-64.9300
54075500.0000	-64.9900
54125500.0000	-64.4200
54175500.0000	-64.8900
54225500.0000	-64.1800
54275500.0000	-63.9500
54325500.0000	-64.6900
54375500.0000	-64.4800
54425500.0000	-63.1500
54475500.0000	-63.9300
54525500.0000	-63.9100
54575500.0000	-62.5800
54625500.0000	-62.4000
54675500.0000	-62.2400
54725500.0000	-62.1300
54775500.0000	-62.4200
54825500.0000	-62.6400
54875500.0000	-61.1700
54925500.0000	-60.9900
54975500.0000	-61.4100
55025500.0000	-60.4800
55075500.0000	-60.6000
55125500.0000	-60.7200
55175500.0000	-59.7600
55225500.0000	-59.5300
55275500.0000	-58.8600
55325500.0000	-59.6200
55375500.0000	-59.4500
55425500.0000	-58.4700
55475500.0000	-58.3200
55525500.0000	-56.3900
55575500.0000	-56.7000
55625500.0000	-56.8800
55675500.0000	-56.1800
55725500.0000	-55.9500
55775500.0000	-54.7800
55825500.0000	-54.2500
55875500.0000	-53.5300
55925500.0000	-52.1100
55975500.0000	-52.2100
56025500.0000	-52.4800
56075500.0000	-52.2400
56125500.0000	-51.2500
56175500.0000	-50.2900
56225500.0000	-49.2300
56275500.0000	-48.9300
56325500.0000	-46.5900
56375500.0000	-46.3000
56425500.0000	-44.9200
56475500.0000	-43.3800
56525500.0000	-42.8600
56575500.0000	-40.9600
56625500.0000	-40.9300
56675500.0000	-40.7800
56725500.0000	-41.8100
56775500.0000	-42.1300
56825500.0000	-42.8000
56875500.0000	-43.9100
56925500.0000	-46.0900
56975500.0000	-44.8300
57025500.0000	-46.7100
57075500.0000	-48.0500
57125500.0000	-48.8300
57175500.0000	-49.3800
57225500.0000	-47.7800
57275500.0000	-50.5100
57325500.0000	-49.4800
57375500.0000	-50.8300
57425500.0000	-50.6100
57475500.0000	-51.9200
57525500.0000	-51.1200
57575500.0000	-52.9900
57625500.0000	-52.1000
57675500.0000	-52.6800
57725500.0000	-51.8600
57775500.0000	-52.3600
57825500.0000	-53.4100
57875500.0000	-52.1600
57925500.0000	-53.1500
57975500.0000	-53.8800
58025500.0000	-54.0200
58075500.0000	-53.9900
58125500.0000	-55.0000
58175500.0000	-54.1300
58225500.0000	-53.0700
58275500.0000	-53.5100
58325500.0000	-53.8400
58375500.0000	-53.0600
58425500.0000	-53.0900
58475500.0000	-52.8100
58525500.0000	-52.5200
58575500.0000	-52.8800
58625500.0000	-51.6100
58675500.0000	-51.7900
58725500.0000	-51.2000
58775500.0000	-50.5300
58825500.0000	-49.6800
58875500.0000	-50.0100
58925500.0000	-49.2700
58975500.0000	-47.6200
59025500.0000	-47.3900
59075500.0000	-45.9200
59125500.0000	-44.3100
59175500.0000	-44.1800
59225500.0000	-41.7800
59275500.0000	-40.2200
59325500.0000	-38.5600
59375500.0000	-39.5500
59425500.0000	-38.1200
59475500.0000	-37.9700
59525500.0000	-37.6700
59575500.0000	-38.0600
59625500.0000	-38.8100
59675500.0000	-39.1300
59725500.0000	-39.3200
59775500.0000	-37.3800
59825500.0000	-39.0700
59875500.0000	-38.8100
59925500.0000	-38.6800
59975500.0000	-39.8700
60025500.0000	-38.7500
60075500.0000	-33.7300
60125500.0000	-21.1300
60175500.0000	-7.4500
60225500.0000	-4.6100
60275500.0000	-20.8700
60325500.0000	-31.3600
60375500.0000	-38.9800
60425500.0000	-40.7000
60475500.0000	-38.3200
60525500.0000	-38.2600
60575500.0000	-38.5100
60625500.0000	-40.0000
60675500.0000	-38.2900
60725500.0000	-38.2800
60775500.0000	-39.3900
60825500.0000	-39.4700
60875500.0000	-37.5200
60925500.0000	-37.8300
60975500.0000	-37.2400
61025500.0000	-37.9100
61075500.0000	-38.2400
61125500.0000	-39.9900
61175500.0000	-40.4700
61225500.0000	-42.6400
61275500.0000	-44.2600
61325500.0000	-45.5900
61375500.0000	-46.6700
61425500.0000	-48.2600
61475500.0000	-48.9500
61525500.0000	-49.8800
61575500.0000	-50.6700
61625500.0000	-49.8800
61675500.0000	-51.4300
61725500.0000	-51.2800
61775500.0000	-51.7200
61825500.0000	-52.0600
61875500.0000	-52.2300
61925500.0000	-52.5000
61975500.0000	-52.9700
62025500.0000	-52.1800
62075500.0000	-52.9500
62125500.0000	-53.8500
62175500.0000	-53.5700
62225500.0000	-53.0200
62275500.0000	-52.9900
62325500.0000	-53.6100
62375500.0000	-53.7500
62425500.0000	-52.3900
62475500.0000	-52.7200
62525500.0000	-53.6000
62575500.0000	-53.1100
62625500.0000	-53.9200
62675500.0000	-53.5300
62725500.0000	-52.1700
62775500.0000	-51.6800
62825500.0000	-51.5700
62875500.0000	-51.2800
62925500.0000	-50.4100
62975500.0000	-50.8700
63025500.0000	-50.4100
63075500.0000	-50.5200
63125500.0000	-50.0600
63175500.0000	-49.4300
63225500.0000	-48.6700
63275500.0000	-47.3200
63325500.0000	-47.7500
63375500.0000	-47.4400
63425500.0000	-47.0900
63475500.0000	-44.7600
63525500.0000	-44.7300
63575500.0000	-43.3200
63625500.0000	-41.5200
63675500.0000	-41.0100
63725500.0000	-40.9900
63775500.0000	-42.8500
63825500.0000	-41.5500
63875500.0000	-41.3500
63925500.0000	-44.0600
63975500.0000	-43.9600
64025500.0000	-46.4200
64075500.0000	-46.4000
64125500.0000	-47.0900
64175500.0000	-50.2000
64225500.0000	-49.9400
64275500.0000	-49.6700
64325500.0000	-52.2100
64375500.0000	-51.4300
64425500.0000	-54.1000
64475500.0000	-54.6400
64525500.0000	-54.5800
64575500.0000	-55.4900
64625500.0000	-56.3700
64675500.0000	-55.3000
64725500.0000	-56.8800
64775500.0000	-57.4900
64825500.0000	-57.5300
64875500.0000	-59.0100
64925500.0000	-58.2900
64975500.0000	-58.6400
65025500.0000	-59.9300
65075500.0000	-58.9100
65125500.0000	-59.2400
65175500.0000	-59.6200
65225500.0000	-60.3300
65275500.0000	-60.5700
65325500.0000	-60.5300
65375500.0000	-60.2000
65425500.0000	-61.4400
65475500.0000	-62.0800
65525500.0000	-62.8800
65575500.0000	-62.0700
65625500.0000	-62.4300
65675500.0000	-62.5700
65725500.0000	-62.8000
65775500.0000	-64.7200
65825500.0000	-63.6700
65875500.0000	-65.5100
65925500.0000	-63.2900
65975500.0000	-63.7000
66025500.0000	-64.3000
66075500.0000	-64.6400
66125500.0000	-64.2500
66175500.0000	-64.7300
66225500.0000	-64.6000
66275500.0000	-64.2900
66325500.0000	-65.9500
66375500.0000	-65.1600
66425500.0000	-65.3900
66475500.0000	-65.3000
66525500.0000	-65.6000
66575500.0000	-66.1500
66625500.0000	-65.7800
66675500.0000	-66.3300
66725500.0000	-66.6100
66775500.0000	-66.1600
66825500.0000	-64.9800
66875500.0000	-66.4900
66925500.0000	-66.1500
66975500.0000	-65.4600
67025500.0000	-64.9800
67075500.0000	-65.8600
67125500.0000	-67.3900
67175500.0000	-64.6800
67225500.0000	-65.8000
67275500.0000	-65.6600
67325500.0000	-65.6600
67375500.0000	-66.9700
67425500.0000	-66.5100
67475500.0000	-66.2500
67525500.0000	-66.8400
67575500.0000	-67.0200
67625500.0000	-66.8100
67675500.0000	-67.3700
67725500.0000	-68.1100
67775500.0000	-67.4700
67825500.0000	-67.1200
67875500.0000	-67.7400
67925500.0000	-68.5500
67975500.0000	-68.2900
68025500.0000	-67.8900
68075500.0000	-68.5500
68125500.0000	-68.8400
68175500.0000	-68.5100
68225500.0000	-67.9600
68275500.0000	-69.3000
68325500.0000	-68.3500
68375500.0000	-67.9500
68425500.0000	-68.8300
68475500.0000	-68.2800
68525500.0000	-68.4700
68575500.0000	-68.0500
68625500.0000	-68.2200
68675500.0000	-68.7000
68725500.0000	-69.1500
68775500.0000	-69.0100
68825500.0000	-68.2600
68875500.0000	-69.2600
68925500.0000	-68.3300
68975500.0000	-69.4700
69025500.0000	-69.5000
69075500.0000	-69.0500
69125500.0000	-68.6500
69175500.0000	-69.7200
69225500.0000	-68.2100
69275500.0000	-68.5000
69325500.0000	-68.7500
69375500.0000	-68.8100
69425500.0000	-69.0600
69475500.0000	-67.8700
69525500.0000	-69.0200
69575500.0000	-68.5700
69625500.0000	-68.5400
69675500.0000	-68.9100
69725500.0000	-69.3700
69775500.0000	-69.2600
69825500.0000	-68.8700
69875500.0000	-69.1300
69925500.0000	-68.5900
69975500.0000	-68.6200
70025500.0000	-68.1700
